# IRAC_CH1 filter 
# Wavelength [microns]  |  Transmission efficiency
3.08106000       4.90000000E-04  
3.08289000       5.86000000E-04  
3.08473000       4.53000000E-04  
3.08656000       4.58000000E-04  
3.08840000       4.39000000E-04  
3.09024000       5.31000000E-04  
3.09208000       6.41000000E-04  
3.09393000       4.42000000E-04  
3.09578000       5.35000000E-04  
3.09762000       6.55000000E-04  
3.09948000       5.25000000E-04  
3.10133000       6.31000000E-04  
3.10319000       6.18000000E-04  
3.10504000       4.96000000E-04  
3.10690000       7.00000000E-04  
3.10877000       8.95000000E-04  
3.11063000       8.73000000E-04  
3.11250000       1.04500000E-03  
3.11437000       1.29400000E-03  
3.11624000       1.39000000E-03  
3.11811000       1.68300000E-03  
3.11999000       2.13200000E-03  
3.12187000       2.41300000E-03  
3.12375000       2.78200000E-03  
3.12563000       3.34300000E-03  
3.12752000       3.84600000E-03  
3.12940000       4.59600000E-03  
3.13129000       5.76000000E-03  
3.13319000       6.88900000E-03  
3.13508000       8.31300000E-03  
3.13698000       1.01700000E-02  
3.13888000       1.21800000E-02  
3.14078000       1.48200000E-02  
3.14268000       1.81600000E-02  
3.14459000       2.18100000E-02  
3.14649000       2.64600000E-02  
3.14841000       3.19700000E-02  
3.15032000       3.85700000E-02  
3.15223000       4.65000000E-02  
3.15415000       5.52200000E-02  
3.15607000       6.53300000E-02  
3.15799000       7.74000000E-02  
3.15992000       9.14700000E-02  
3.16184000       1.06100000E-01  
3.16377000       1.22000000E-01  
3.16570000       1.40600000E-01  
3.16764000       1.58900000E-01  
3.16957000       1.78800000E-01  
3.17151000       2.00200000E-01  
3.17345000       2.20500000E-01  
3.17540000       2.41200000E-01  
3.17734000       2.61800000E-01  
3.17929000       2.82200000E-01  
3.18124000       2.98600000E-01  
3.18319000       3.14000000E-01  
3.18515000       3.30400000E-01  
3.18711000       3.43100000E-01  
3.18907000       3.52900000E-01  
3.19103000       3.60600000E-01  
3.19299000       3.68500000E-01  
3.19496000       3.72300000E-01  
3.19693000       3.73700000E-01  
3.19890000       3.75000000E-01  
3.20088000       3.74400000E-01  
3.20286000       3.71800000E-01  
3.20484000       3.70300000E-01  
3.20682000       3.68600000E-01  
3.20880000       3.65300000E-01  
3.21079000       3.61900000E-01  
3.21278000       3.58000000E-01  
3.21477000       3.54100000E-01  
3.21676000       3.51300000E-01  
3.21876000       3.49500000E-01  
3.22076000       3.48400000E-01  
3.22276000       3.45200000E-01  
3.22477000       3.43700000E-01  
3.22677000       3.44600000E-01  
3.22878000       3.43600000E-01  
3.23079000       3.43600000E-01  
3.23281000       3.44300000E-01  
3.23482000       3.44800000E-01  
3.23684000       3.47400000E-01  
3.23887000       3.49600000E-01  
3.24089000       3.51200000E-01  
3.24292000       3.54100000E-01  
3.24495000       3.57800000E-01  
3.24698000       3.62300000E-01  
3.24901000       3.66100000E-01  
3.25105000       3.69800000E-01  
3.25309000       3.74800000E-01  
3.25513000       3.79500000E-01  
3.25718000       3.84100000E-01  
3.25922000       3.89500000E-01  
3.26127000       3.93600000E-01  
3.26332000       3.97400000E-01  
3.26538000       4.00700000E-01  
3.26744000       4.03400000E-01  
3.26950000       4.06500000E-01  
3.27156000       4.10400000E-01  
3.27363000       4.12500000E-01  
3.27569000       4.13700000E-01  
3.27776000       4.15800000E-01  
3.27984000       4.15800000E-01  
3.28191000       4.16300000E-01  
3.28399000       4.16500000E-01  
3.28607000       4.15300000E-01  
3.28816000       4.14500000E-01  
3.29024000       4.14300000E-01  
3.29233000       4.14500000E-01  
3.29442000       4.13400000E-01  
3.29652000       4.12500000E-01  
3.29862000       4.11700000E-01  
3.30071000       4.09100000E-01  
3.30282000       4.08600000E-01  
3.30492000       4.09100000E-01  
3.30703000       4.06900000E-01  
3.30914000       4.06000000E-01  
3.31125000       4.05600000E-01  
3.31337000       4.05000000E-01  
3.31549000       4.05500000E-01  
3.31761000       4.04400000E-01  
3.31973000       4.02400000E-01  
3.32186000       4.02700000E-01  
3.32399000       4.03600000E-01  
3.32612000       4.04200000E-01  
3.32826000       4.04700000E-01  
3.33039000       4.04300000E-01  
3.33253000       4.04700000E-01  
3.33468000       4.06600000E-01  
3.33682000       4.06800000E-01  
3.33897000       4.06600000E-01  
3.34112000       4.07000000E-01  
3.34328000       4.06700000E-01  
3.34543000       4.06500000E-01  
3.34759000       4.06700000E-01  
3.34976000       4.07200000E-01  
3.35192000       4.07000000E-01  
3.35409000       4.06600000E-01  
3.35626000       4.06300000E-01  
3.35843000       4.05100000E-01  
3.36061000       4.05100000E-01  
3.36279000       4.04900000E-01  
3.36497000       4.03900000E-01  
3.36716000       4.04800000E-01  
3.36935000       4.04100000E-01  
3.37154000       4.01600000E-01  
3.37373000       4.03300000E-01  
3.37593000       4.05600000E-01  
3.37813000       4.05600000E-01  
3.38033000       4.06300000E-01  
3.38253000       4.07100000E-01  
3.38474000       4.08000000E-01  
3.38695000       4.10900000E-01  
3.38917000       4.13500000E-01  
3.39138000       4.16000000E-01  
3.39360000       4.18700000E-01  
3.39582000       4.20800000E-01  
3.39805000       4.24500000E-01  
3.40028000       4.27300000E-01  
3.40251000       4.29100000E-01  
3.40474000       4.32100000E-01  
3.40698000       4.33300000E-01  
3.40922000       4.33500000E-01  
3.41146000       4.35300000E-01  
3.41371000       4.36700000E-01  
3.41596000       4.35400000E-01  
3.41821000       4.34400000E-01  
3.42046000       4.35600000E-01  
3.42272000       4.35100000E-01  
3.42498000       4.34300000E-01  
3.42725000       4.34000000E-01  
3.42951000       4.30300000E-01  
3.43178000       4.26500000E-01  
3.43406000       4.25400000E-01  
3.43633000       4.24300000E-01  
3.43861000       4.22100000E-01  
3.44089000       4.20200000E-01  
3.44318000       4.17900000E-01  
3.44546000       4.16300000E-01  
3.44775000       4.15700000E-01  
3.45005000       4.14300000E-01  
3.45235000       4.13900000E-01  
3.45465000       4.14000000E-01  
3.45695000       4.13100000E-01  
3.45926000       4.13400000E-01  
3.46156000       4.14500000E-01  
3.46388000       4.15800000E-01  
3.46619000       4.17600000E-01  
3.46851000       4.18600000E-01  
3.47083000       4.19400000E-01  
3.47316000       4.21800000E-01  
3.47548000       4.24800000E-01  
3.47782000       4.27100000E-01  
3.48015000       4.30500000E-01  
3.48249000       4.34300000E-01  
3.48483000       4.36900000E-01  
3.48717000       4.40200000E-01  
3.48952000       4.43400000E-01  
3.49187000       4.45100000E-01  
3.49422000       4.47700000E-01  
3.49658000       4.50600000E-01  
3.49894000       4.52900000E-01  
3.50130000       4.55700000E-01  
3.50366000       4.57200000E-01  
3.50603000       4.56400000E-01  
3.50841000       4.56400000E-01  
3.51078000       4.58300000E-01  
3.51316000       4.59900000E-01  
3.51554000       4.60500000E-01  
3.51793000       4.61400000E-01  
3.52031000       4.61500000E-01  
3.52271000       4.61500000E-01  
3.52510000       4.61600000E-01  
3.52750000       4.61500000E-01  
3.52990000       4.62100000E-01  
3.53230000       4.62900000E-01  
3.53471000       4.62000000E-01  
3.53712000       4.59600000E-01  
3.53954000       4.58000000E-01  
3.54196000       4.58200000E-01  
3.54438000       4.57100000E-01  
3.54680000       4.55500000E-01  
3.54923000       4.55500000E-01  
3.55166000       4.54700000E-01  
3.55409000       4.53700000E-01  
3.55653000       4.52800000E-01  
3.55897000       4.51800000E-01  
3.56142000       4.52100000E-01  
3.56386000       4.52600000E-01  
3.56632000       4.52600000E-01  
3.56877000       4.51500000E-01  
3.57123000       4.50500000E-01  
3.57369000       4.50300000E-01  
3.57615000       4.50800000E-01  
3.57862000       4.52200000E-01  
3.58109000       4.52800000E-01  
3.58357000       4.52800000E-01  
3.58605000       4.54400000E-01  
3.58853000       4.56200000E-01  
3.59101000       4.57400000E-01  
3.59350000       4.58600000E-01  
3.59599000       4.59500000E-01  
3.59849000       4.60200000E-01  
3.60099000       4.60200000E-01  
3.60349000       4.59600000E-01  
3.60600000       4.59500000E-01  
3.60851000       4.58800000E-01  
3.61102000       4.59100000E-01  
3.61354000       4.59700000E-01  
3.61606000       4.58400000E-01  
3.61858000       4.57600000E-01  
3.62111000       4.56800000E-01  
3.62364000       4.55800000E-01  
3.62617000       4.55300000E-01  
3.62871000       4.53600000E-01  
3.63125000       4.50900000E-01  
3.63379000       4.48700000E-01  
3.63634000       4.46900000E-01  
3.63889000       4.45600000E-01  
3.64145000       4.44800000E-01  
3.64401000       4.42500000E-01  
3.64657000       4.40600000E-01  
3.64914000       4.40100000E-01  
3.65171000       4.38100000E-01  
3.65428000       4.36900000E-01  
3.65686000       4.37600000E-01  
3.65944000       4.36400000E-01  
3.66202000       4.35200000E-01  
3.66461000       4.35500000E-01  
3.66720000       4.35700000E-01  
3.66980000       4.36700000E-01  
3.67240000       4.38200000E-01  
3.67500000       4.38900000E-01  
3.67761000       4.39000000E-01  
3.68022000       4.40500000E-01  
3.68283000       4.44100000E-01  
3.68545000       4.46000000E-01  
3.68807000       4.46800000E-01  
3.69069000       4.49500000E-01  
3.69332000       4.52500000E-01  
3.69595000       4.55100000E-01  
3.69859000       4.57200000E-01  
3.70123000       4.59000000E-01  
3.70387000       4.60200000E-01  
3.70652000       4.62300000E-01  
3.70917000       4.65800000E-01  
3.71183000       4.68800000E-01  
3.71449000       4.70200000E-01  
3.71715000       4.70500000E-01  
3.71982000       4.70500000E-01  
3.72249000       4.71000000E-01  
3.72516000       4.72100000E-01  
3.72784000       4.73200000E-01  
3.73052000       4.73400000E-01  
3.73321000       4.72700000E-01  
3.73590000       4.73000000E-01  
3.73859000       4.72800000E-01  
3.74129000       4.72800000E-01  
3.74399000       4.73200000E-01  
3.74669000       4.72300000E-01  
3.74940000       4.71000000E-01  
3.75212000       4.69700000E-01  
3.75483000       4.69400000E-01  
3.75755000       4.69700000E-01  
3.76028000       4.67500000E-01  
3.76301000       4.64700000E-01  
3.76574000       4.63700000E-01  
3.76848000       4.63500000E-01  
3.77122000       4.62200000E-01  
3.77396000       4.60400000E-01  
3.77671000       4.60100000E-01  
3.77946000       4.59600000E-01  
3.78222000       4.58400000E-01  
3.78498000       4.56700000E-01  
3.78775000       4.56800000E-01  
3.79051000       4.57500000E-01  
3.79329000       4.56800000E-01  
3.79606000       4.57100000E-01  
3.79884000       4.57100000E-01  
3.80163000       4.55600000E-01  
3.80442000       4.56400000E-01  
3.80721000       4.56900000E-01  
3.81001000       4.54100000E-01  
3.81281000       4.53000000E-01  
3.81562000       4.52900000E-01  
3.81843000       4.51100000E-01  
3.82124000       4.49500000E-01  
3.82406000       4.47000000E-01  
3.82688000       4.44300000E-01  
3.82971000       4.43000000E-01  
3.83254000       4.41300000E-01  
3.83537000       4.38500000E-01  
3.83821000       4.37400000E-01  
3.84105000       4.35200000E-01  
3.84390000       4.31700000E-01  
3.84675000       4.30200000E-01  
3.84961000       4.29400000E-01  
3.85247000       4.28000000E-01  
3.85533000       4.28000000E-01  
3.85820000       4.28000000E-01  
3.86107000       4.28200000E-01  
3.86395000       4.30100000E-01  
3.86683000       4.33000000E-01  
3.86972000       4.36400000E-01  
3.87261000       4.39600000E-01  
3.87550000       4.42300000E-01  
3.87840000       4.44500000E-01  
3.88130000       4.46100000E-01  
3.88421000       4.47100000E-01  
3.88712000       4.48300000E-01  
3.89004000       4.47300000E-01  
3.89296000       4.43700000E-01  
3.89589000       4.34700000E-01  
3.89881000       4.21100000E-01  
3.90175000       4.05000000E-01  
3.90469000       3.83500000E-01  
3.90763000       3.55900000E-01  
3.91058000       3.28600000E-01  
3.91353000       2.93700000E-01  
3.91648000       2.56300000E-01  
3.91944000       2.21500000E-01  
3.92241000       1.86900000E-01  
3.92538000       1.52200000E-01  
3.92835000       1.23700000E-01  
3.93133000       9.89000000E-02  
3.93431000       7.75000000E-02  
3.93730000       5.86900000E-02  
3.94029000       4.48500000E-02  
3.94329000       3.37300000E-02  
3.94629000       2.51500000E-02  
3.94929000       1.87700000E-02  
3.95230000       1.37600000E-02  
3.95532000       9.61000000E-03  
3.95834000       6.88800000E-03  
3.96136000       4.77900000E-03  
3.96439000       2.98300000E-03  
3.96742000       2.03100000E-03  
3.97046000       1.63300000E-03  
3.97350000       1.35400000E-03  
3.97655000       1.21400000E-03  
3.97960000       1.18600000E-03  
3.98266000       1.07700000E-03  
3.98572000       1.12800000E-03  
3.98879000       1.28700000E-03  
3.99186000       1.26900000E-03  
3.99493000       1.17700000E-03  
3.99801000       1.12500000E-03  
4.00110000       1.07400000E-03  
4.00419000       9.36000000E-04  
4.00728000       7.51000000E-04  
4.01038000       5.90000000E-04  
